# z[m] T[K]
  156.92   290.18
  162.98   289.92
  168.73   289.79
  174.06   289.71
  188.19   289.53
  193.35   289.45
  198.53   289.40
  202.31   289.33
  206.40   289.33
  211.96   289.09
  216.20   288.92
  221.15   288.81
  225.87   288.74
  229.73   288.69
  234.22   288.61
  239.05   288.56
  243.87   288.53
  249.95   288.48
  253.88   288.48
  260.17   288.41
  264.76   288.36
  270.72   288.28
  276.50   288.25
  281.66   288.20
  287.87   288.13
  293.63   288.08
  299.18   288.05
  304.51   288.00
  310.39   287.98
  315.87   287.90
  321.78   287.83
  327.56   287.75
  333.63   287.68
  340.36   287.60
  345.04   287.58
  350.14   287.53
  355.16   287.48
  360.49   287.48
  366.24   287.50
  372.04   287.45
  375.67   287.40
  382.15   287.25
  387.14   287.25
  392.85   287.13
  399.03   287.03
  404.83   286.98
  410.23   286.93
  417.24   286.85
  429.20   286.78
  434.73   286.73
  441.27   286.73
  446.65   286.70
  452.26   286.65
  457.38   286.60
  463.65   286.55
  469.35   286.43
  475.03   286.31
  480.33   286.31
  487.18   286.23
  492.25   286.21
  498.20   286.13
  503.54   286.11
  509.18   286.08
  516.00   286.03
  520.69   285.98
  527.26   285.96
  532.86   285.94
  538.77   285.91
  544.53   285.89
  550.60   285.86
  556.15   285.86
  563.05   285.81
  567.56   285.79
  573.86   285.74
  579.45   285.71
  584.34   285.69
  589.36   285.49
  594.50   285.37
  600.91   285.25
  606.57   285.15
  616.45   285.01
  621.85   284.93
  626.83   284.93
  632.51   284.89
  638.20   284.86
  642.17   284.84
  647.72   284.81
  652.79   284.74
  658.04   284.72
  662.93   284.69
  667.96   284.55
  672.98   284.38
  678.57   284.38
  683.75   284.40
  688.06   284.48
  693.52   284.55
  698.39   284.67
  703.21   284.74
  708.66   284.81
  713.88   284.96
  718.95   285.08
  723.23   285.18
  728.39   285.23
  733.49   285.27
  738.17   285.30
  743.17   285.27
  748.55   285.25
  754.37   285.18
  758.65   285.15
  764.67   285.10
  769.68   285.03
  775.15   284.98
  781.28   284.96
  786.07   284.91
  790.31   284.86
  795.85   284.81
  802.01   284.77
  806.21   284.72
  811.82   284.67
  817.12   284.64
  822.72   284.60
  828.05   284.55
  833.88   284.50
  839.65   284.45
  844.52   284.40
  849.46   284.35
  853.85   284.35
  859.19   284.26
  864.09   284.23
  869.54   284.19
  875.08   284.14
  879.63   284.09
  885.80   284.07
  890.47   284.04
  895.29   283.99
  899.67   283.95
  905.35   283.92
  909.03   283.87
  914.70   283.87
  919.73   283.85
  924.04   283.78
  929.11   283.76
  933.39   283.71
  944.21   283.64
  949.18   283.61
  959.76   283.52
  964.78   283.52
  970.00   283.52
  974.44   283.52
  979.58   283.47
  984.66   283.42
  990.36   283.37
  994.20   283.35
 1000.07   283.32
 1003.88   283.30
 1009.42   283.25
 1013.64   283.21
 1019.07   283.16
 1023.54   283.11
 1029.33   283.06
 1032.77   283.04
 1038.64   283.01
 1043.92   282.97
 1048.76   282.94
 1053.38   282.94
 1059.72   282.85
 1064.00   282.82
 1068.98   282.80
 1075.19   282.73
 1080.39   282.68
 1086.35   282.63
 1091.74   282.63
 1096.96   282.63
 1101.86   282.59
 1106.85   282.59
 1111.57   282.54
 1117.50   282.52
 1122.44   282.47
 1127.17   282.43
 1132.77   282.38
 1136.53   282.35
 1141.92   282.33
 1146.83   282.26
 1152.15   282.24
 1157.63   282.21
 1162.91   282.16
 1167.49   282.14
 1172.69   282.12
 1178.61   282.05
 1183.47   282.00
 1189.52   281.95
 1194.83   281.95
 1200.16   281.88
 1210.56   281.83
 1214.74   281.76
 1220.50   281.71
 1224.86   281.69
 1230.91   281.64
 1235.70   281.62
 1241.81   281.57
 1246.79   281.55
 1252.62   281.50
 1257.33   281.48
 1263.42   281.48
 1273.78   281.36
 1278.13   281.36
 1284.61   281.31
 1289.44   281.29
 1295.36   281.24
 1300.33   281.22
 1305.18   281.20
 1311.41   281.15
 1316.36   281.15
 1322.05   281.08
 1327.16   281.10
 1332.62   281.08
 1347.49   281.03
 1353.44   280.96
 1357.89   280.91
 1362.95   280.87
 1368.76   280.87
 1374.27   280.84
 1378.58   280.84
 1384.64   280.77
 1389.00   280.73
 1394.40   280.68
 1400.26   280.63
 1405.54   280.61
 1410.10   280.59
 1415.81   280.54
 1421.69   280.52
 1426.60   280.47
 1432.26   280.45
 1437.80   280.42
 1443.19   280.40
 1448.84   280.33
 1454.22   280.33
 1459.51   280.28
 1465.39   280.24
 1470.28   280.21
 1475.54   280.21
 1481.46   280.14
 1486.59   280.10
 1492.33   280.03
 1497.54   280.03
 1502.99   280.00
 1507.41   280.00
 1513.59   279.98
 1518.36   279.98
 1523.09   279.93
 1529.10   279.93
 1533.32   279.89
 1539.18   279.82
 1545.23   279.86
 1550.10   279.91
 1555.45   279.91
 1560.89   279.82
 1566.50   279.84
 1571.75   279.89
 1578.07   279.86
 1582.33   279.89
 1588.72   279.82
 1593.61   279.79
 1599.60   279.72
 1604.72   279.72
 1611.62   279.68
 1616.41   279.68
 1623.48   279.65
 1626.99   279.63
 1632.87   279.61
 1637.76   279.58
 1643.85   279.54
 1649.73   279.51
 1655.22   279.51
 1661.09   279.49
 1666.53   279.49
 1672.77   279.44
 1677.57   279.47
 1684.35   279.44
 1690.27   279.44
 1697.11   279.42
 1702.53   279.40
 1708.29   279.37
 1715.15   279.35
 1720.24   279.35
 1726.16   279.30
 1731.16   279.28
 1737.39   279.26
 1743.34   279.23
 1748.47   279.19
 1754.56   279.19
 1761.10   279.14
 1767.12   279.10
 1773.92   279.05
 1781.19   279.03
 1785.55   279.00
 1791.99   278.96
 1796.84   278.96
 1804.24   278.87
 1808.69   278.87
 1816.02   278.86
 1822.28   278.82
 1828.22   278.77
 1835.53   278.75
 1841.01   278.70
 1846.94   278.68
 1852.65   278.66
 1858.56   278.61
 1864.93   278.59
 1876.40   278.54
 1882.45   278.50
 1888.39   278.47
 1893.26   278.43
 1898.82   278.38
 1910.43   278.34
 1916.04   278.29
 1921.93   278.27
 1927.67   278.24
 1933.45   278.24
 1939.74   278.18
 1944.83   278.15
 1951.44   278.11
 1957.24   278.08
 1962.75   278.06
 1968.89   278.01
 1975.14   277.99
 1981.02   277.95
 1986.60   277.92
 1992.89   277.92
 1996.94   277.88
 2002.79   277.83
 2013.53   277.79
 2018.55   277.76
 2023.65   277.72
 2029.74   277.72
 2034.88   277.65
 2041.10   277.63
 2046.34   277.63
 2052.54   277.58
 2057.16   277.56
 2063.32   277.54
 2068.03   277.51
 2074.20   277.44
 2077.98   277.47
 2084.78   277.40
 2090.53   277.38
 2096.11   277.38
 2101.90   277.33
 2106.80   277.28
 2117.66   277.24
 2123.38   277.24
 2128.59   277.24
 2133.08   277.19
 2139.21   277.17
 2144.75   277.17
 2150.81   277.12
 2155.86   277.12
 2161.53   277.08
 2166.53   277.03
 2173.30   276.99
 2178.45   276.99
 2183.71   276.96
 2190.28   276.92
 2194.64   276.90
 2201.82   276.85
 2206.04   276.80
 2210.46   276.80
 2216.97   276.74
 2222.58   276.69
 2228.48   276.69
 2233.85   276.65
 2238.66   276.65
 2244.69   276.60
 2249.98   276.58
 2254.94   276.55
 2260.45   276.53
 2265.94   276.49
 2277.56   276.40
 2283.39   276.33
 2287.32   276.30
 2293.10   276.30
 2298.19   276.26
 2304.07   276.24
 2309.32   276.21
 2314.29   276.15
 2320.28   276.10
 2324.93   276.06
 2331.44   275.99
 2336.90   275.92
 2342.53   275.87
 2347.64   275.78
 2353.82   275.74
 2359.15   275.72
 2364.76   275.67
 2370.55   275.65
 2375.95   275.65
 2381.73   275.58
 2386.98   275.54
 2393.23   275.51
 2396.89   275.51
 2404.09   275.42
 2408.72   275.44
 2414.94   275.38
 2421.20   275.35
 2426.13   275.33
 2432.30   275.31
 2437.37   275.26
 2443.80   275.22
 2449.68   275.20
 2455.30   275.17
 2460.63   275.13
 2466.79   275.08
 2472.29   275.06
 2479.33   275.02
 2484.53   275.02
 2491.30   274.95
 2496.55   274.93
 2502.68   274.88
 2508.67   274.83
 2514.49   274.83
 2520.34   274.81
 2525.51   274.79
 2531.36   274.74
 2537.10   274.74
 2542.04   274.67
 2546.87   274.67
 2553.44   274.63
 2556.77   274.65
 2563.49   274.61
 2568.65   274.58
 2573.27   274.52
 2579.63   274.49
 2586.55   274.45
 2587.84   274.49
 2594.93   274.40
 2599.56   274.42
 2603.22   274.40
 2610.55   274.33
 2615.13   274.36
 2621.27   274.31
 2625.11   274.29
 2631.02   274.29
 2636.22   274.24
 2641.77   274.20
 2646.17   274.18
 2650.32   274.06
 2656.74   274.02
 2661.71   274.04
 2666.73   274.00
 2672.29   274.00
 2677.65   273.84
 2683.35   273.75
 2689.49   273.70
 2694.48   273.70
 2699.68   273.66
 2705.98   273.64
 2710.41   273.57
 2716.45   273.52
 2722.38   273.55
 2727.69   273.55
 2734.18   273.50
 2739.13   273.55
 2744.82   273.52
 2751.49   273.46
 2758.37   273.32
 2761.66   273.30
 2767.69   273.19
 2773.05   273.16
 2779.61   273.12
 2784.93   273.05
 2791.48   272.98
 2796.66   272.96
 2802.87   272.92
 2809.23   272.87
 2814.43   272.85
 2818.25   272.83
 2824.80   272.74
 2830.44   272.69
 2833.47   272.67
 2839.84   272.63
 2845.34   272.60
 2853.22   272.56
 2856.74   272.56
 2861.58   272.54
 2868.31   272.47
 2874.83   272.49
 2881.04   272.45
 2882.79   272.40
 2889.62   272.18
 2894.17   272.07
 2899.80   272.02
 2904.26   271.93
 2910.30   271.93
 2917.98   271.86
 2924.13   271.89
 2928.35   271.93
 2932.38   271.75
 2939.11   271.60
 2944.37   271.46
 2948.76   271.44
 2954.34   271.40
 2961.12   271.42
 2965.27   271.44
 2971.83   271.39
 2977.28   271.33
 2981.68   271.26
 2987.85   271.15
 2993.31   271.06
 2998.52   271.04
 3005.18   270.99
 3012.49   270.97
 3017.02   270.97
 3029.54   270.84
 3034.05   270.79
 3040.81   270.72
 3045.67   270.66
 3052.66   270.68
 3057.57   270.68
 3063.83   270.68
 3068.63   270.77
 3076.30   270.83
 3082.11   270.90
 3092.89   270.81
 3097.69   270.63
 3103.90   270.52
 3110.89   270.48
 3116.86   270.43
 3121.86   270.45
 3128.32   270.41
 3133.34   270.43
 3139.74   270.41
 3141.82   270.43
 3145.99   270.45
 3152.22   270.50
 3159.89   270.63
 3164.87   270.79
 3171.41   270.81
 3178.09   270.83
 3181.87   270.96
 3188.43   271.19
 3194.35   271.30
 3199.40   271.36
 3204.09   271.41
 3207.09   271.45
 3211.48   271.45
 3216.33   271.47
 3219.69   271.47
 3224.73   271.47
 3231.87   271.50
 3240.42   271.58
 3246.75   271.58
 3250.53   271.61
 3255.35   271.56
 3259.94   271.54
 3266.71   271.49
 3274.21   271.45
 3280.67   271.47
 3282.02   271.54
 3287.27   271.43
 3293.38   271.38
 3300.49   271.36
 3306.84   271.36
 3313.46   271.29
 3320.04   271.34
 3325.01   271.34
 3331.80   271.31
 3338.73   271.36
 3347.22   271.36
 3350.02   271.49
 3356.02   271.47
 3361.45   271.42
 3368.12   271.42
 3375.64   271.45
 3379.25   271.51
 3391.76   271.44
 3398.06   271.42
 3403.35   271.40
 3409.25   271.49
 3416.77   271.51
 3429.25   271.53
 3447.78   271.55
 3456.18   271.55
 3460.00   271.58
 3467.89   271.51
 3474.31   271.53
 3483.39   271.44
 3499.15   271.46
 3516.60   271.44
 3535.99   271.39
 3540.81   271.39
 3549.31   271.37
 3554.38   271.46
 3562.11   271.55
 3570.30   271.55
 3573.07   271.66
 3579.72   271.57
 3592.36   271.55
 3597.92   271.50
 3605.59   271.46
 3609.96   271.48
 3616.79   271.41
 3624.96   271.37
 3629.08   271.41
 3636.67   271.37
 3643.07   271.28
 3648.93   271.28
 3655.27   271.23
 3661.90   271.19
 3668.89   271.17
 3675.40   271.10
 3682.24   271.05
 3688.13   271.05
 3694.91   270.99
 3700.77   270.96
 3706.59   270.96
 3713.93   270.85
 3720.96   270.81
 3727.91   270.79
 3733.39   270.72
 3740.69   270.67
 3745.48   270.65
 3750.28   270.63
 3757.10   270.56
 3765.65   270.56
 3773.88   270.49
 3775.76   270.54
 3780.88   270.49
 3793.49   270.40
 3798.57   270.43
 3806.02   270.36
 3812.74   270.36
 3820.59   270.45
 3829.72   270.74
 3836.02   270.78
 3842.80   270.78
 3849.28   270.78
 3857.05   270.78
 3864.43   270.78
 3869.88   270.82
 3877.25   270.85
 3884.04   270.87
 3890.95   270.93
 3895.15   270.93
 3901.58   270.89
 3909.19   270.82
 3916.99   270.78
 3921.29   270.73
 3927.00   270.69
 3931.52   270.69
 3938.26   270.60
 3941.34   270.62
 3946.17   270.60
 3952.74   270.51
 3959.20   270.44
 3967.14   270.40
 3971.84   270.40
 3976.53   270.35
 3980.16   270.33
 3985.73   270.29
 3993.81   270.22
 4000.94   270.17
 4010.16   270.15
 4016.00   270.13
 4024.06   270.08
 4029.31   270.08
 4036.86   270.02
 4043.97   269.99
 4052.55   269.95
 4059.77   269.88
 4061.87   269.93
 4067.26   269.90
 4074.04   269.90
 4081.53   269.88
 4088.81   269.88
 4094.07   269.88
 4099.64   269.84
 4105.32   269.79
 4113.61   269.70
 4117.22   269.70
 4122.96   269.68
 4130.66   269.61
 4137.41   269.61
 4145.18   269.54
 4152.02   269.52
 4155.29   269.54
 4162.05   269.52
 4168.03   269.50
 4175.17   269.45
 4179.72   269.48
 4185.19   269.43
 4191.78   269.36
 4197.44   269.36
 4202.94   269.30
 4209.57   269.23
 4216.37   269.21
 4223.74   269.16
 4232.11   269.10
 4235.19   269.14
 4240.14   269.10
 4246.76   269.05
 4254.91   269.03
 4262.03   268.96
 4273.25   268.96
 4279.16   268.89
 4285.86   268.83
 4293.98   268.78
 4302.12   268.74
 4308.09   268.71
 4311.53   268.78
 4316.49   268.69
 4323.51   268.65
 4331.83   268.60
 4338.91   268.53
 4344.85   268.49
 4346.71   268.51
 4351.60   268.45
 4359.46   268.38
 4367.36   268.36
 4375.34   268.29
 4377.51   268.31
 4381.43   268.31
 4386.69   268.22
 4394.93   268.13
 4402.49   268.13
 4407.46   268.09
 4411.91   268.09
 4418.72   268.04
 4434.09   267.88
 4439.93   267.86
 4443.05   267.86
 4447.83   267.79
 4454.19   267.75
 4461.25   267.70
 4466.96   267.62
 4474.25   267.57
 4481.05   267.49
 4486.70   267.45
 4492.06   267.43
 4498.64   267.38
 4505.50   267.31
 4512.23   267.24
 4520.60   267.15
 4529.28   267.04
 4536.65   266.99
 4541.24   266.99
 4548.38   266.90
 4555.81   266.83
 4562.18   266.81
 4567.79   266.74
 4572.87   266.72
 4579.19   266.65
 4592.75   266.54
 4601.26   266.47
 4608.96   266.38
 4620.74   266.36
 4626.70   266.26
 4633.86   266.17
 4641.29   266.15
 4645.69   266.13
 4651.33   266.08
 4657.07   266.04
 4663.02   265.97
 4669.14   265.94
 4685.00   265.83
 4693.24   265.83
 4697.36   265.85
 4703.07   265.88
 4709.26   265.83
 4716.09   265.81
 4724.36   265.74
 4740.67   265.69
 4745.59   265.67
 4751.26   265.62
 4757.62   265.62
 4765.59   265.58
 4773.02   265.51
 4781.29   265.46
 4786.05   265.46
 4795.32   265.46
 4800.89   265.42
 4807.52   265.35
 4815.51   265.30
 4824.22   265.23
 4832.01   265.19
 4837.24   265.19
 4843.59   265.12
 4847.24   265.09
 4850.68   265.07
 4855.03   265.05
 4859.40   265.03
 4862.81   265.00
 4867.23   264.98
 4872.37   264.96
 4875.99   265.00
 4879.87   264.98
 4885.57   264.89
 4893.10   264.86
 4904.36   264.79
 4906.83   264.82
 4911.66   264.75
 4915.79   264.70
 4919.49   264.73
 4924.91   264.66
 4929.30   264.68
 4933.49   264.63
 4937.56   264.63
 4940.78   264.59
 4945.45   264.54
 4951.14   264.50
 4959.31   264.40
 4968.26   264.38
 4973.46   264.36
 4982.29   264.26
 4990.04   264.20
 4997.75   264.17
 5003.54   264.08
 5008.71   264.06
 5013.99   264.03
 5019.74   263.99
 5026.03   263.92
 5033.41   263.87
 5040.02   263.80
 5076.62   263.52
 5083.19   263.48
 5088.70   263.46
 5094.00   263.45
 5100.73   263.36
 5108.74   263.29
 5115.89   263.27
 5139.76   263.13
 5148.51   263.08
 5164.70   262.97
 5170.91   262.92
 5176.52   262.90
 5179.98   262.85
 5185.41   262.85
 5192.24   262.78
 5199.63   262.73
 5208.23   262.66
 5214.10   262.66
 5215.33   262.71
 5228.25   262.59
 5234.19   262.55
 5240.24   262.50
 5246.57   262.50
 5253.81   262.41
 5256.37   262.43
 5261.43   262.43
 5267.36   262.38
 5273.98   262.34
 5277.95   262.34
 5286.38   262.22
 5293.45   262.17
 5302.02   262.13
 5311.29   262.05
 5319.65   262.01
 5326.50   261.96
 5333.52   261.91
 5340.24   261.91
 5345.08   261.87
 5351.62   261.82
 5358.84   261.77
 5366.84   261.70
 5375.62   261.66
 5384.32   261.61
 5391.03   261.56
 5395.72   261.54
 5420.37   261.37
 5427.91   261.37
 5434.77   261.40
 5442.64   261.35
 5451.32   261.28
 5459.49   261.25
 5463.83   261.25
 5470.62   261.21
 5477.54   261.18
 5485.58   261.11
 5491.32   261.04
 5498.48   260.99
 5502.05   261.04
 5505.45   260.97
 5511.73   260.95
 5516.26   260.97
 5519.74   260.97
 5524.36   260.99
 5529.81   260.97
 5535.04   260.90
 5541.49   260.83
 5548.76   260.78
 5557.33   260.78
 5566.03   260.71
 5572.98   260.68
 5577.94   260.64
 5581.70   260.66
 5584.99   260.64
 5589.01   260.59
 5591.72   260.59
 5595.51   260.59
 5606.63   260.49
 5611.15   260.47
 5615.67   260.40
 5618.35   260.37
 5622.59   260.37
 5626.30   260.30
 5630.97   260.26
 5636.12   260.23
 5641.07   260.16
 5643.91   260.16
 5647.94   260.16
 5651.91   260.11
 5655.91   260.11
 5659.48   260.11
 5663.20   260.06
 5668.28   260.04
 5672.75   260.02
 5676.76   259.97
 5679.86   259.99
 5684.17   259.94
 5689.00   259.92
 5692.85   259.90
 5697.44   259.90
 5702.12   259.87
 5706.07   259.87
 5709.42   259.90
 5713.02   259.85
 5717.74   259.82
 5720.79   259.82
 5726.40   259.73
 5731.09   259.73
 5734.06   259.73
 5739.66   259.68
 5745.40   259.58
 5751.91   259.56
 5759.61   259.49
 5768.07   259.41
 5773.26   259.39
 5778.97   259.34
 5785.03   259.29
 5790.21   259.29
 5793.67   259.22
 5797.20   259.20
 5804.30   259.17
 5812.63   259.05
 5819.45   259.00
 5823.95   258.98
 5827.68   258.98
 5832.72   258.93
 5839.07   258.88
 5847.58   258.85
 5856.64   258.76
 5863.47   258.76
 5868.62   258.71
 5871.44   258.66
 5875.02   258.63
 5881.41   258.58
 5888.05   258.56
 5893.03   258.56
 5897.20   258.56
 5903.30   258.53
 5908.08   258.49
 5911.41   258.46
 5914.78   258.44
 5919.69   258.39
 5923.08   258.41
 5927.76   258.34
 5932.00   258.31
 5935.75   258.26
 5938.57   258.26
 5943.05   258.24
 5947.87   258.22
 5951.23   258.14
 5956.53   258.12
 5961.55   258.14
 5964.67   258.14
 5969.57   258.12
 5975.42   258.09
 5982.42   258.02
 5987.02   258.02
 5990.30   258.07
 5993.80   257.99
 5998.32   257.97
 6003.45   257.97
 6006.90   257.97
 6009.44   257.97
 6014.29   257.92
 6018.23   257.87
 6023.14   257.87
 6028.48   257.87
 6031.09   257.89
 6035.36   257.84
 6040.90   257.79
 6048.56   257.77
 6056.14   257.79
 6059.71   257.84
 6063.43   257.84
 6068.75   257.77
 6073.82   257.79
 6078.25   257.74
 6082.37   257.82
 6086.55   257.82
 6090.48   257.77
 6094.04   257.79
 6099.26   257.84
 6103.61   257.84
 6107.17   257.84
 6111.73   257.79
 6116.22   257.72
 6119.73   257.69
 6123.97   257.72
 6128.40   257.67
 6131.09   257.64
 6134.87   257.62
 6139.00   257.57
 6141.99   257.54
 6146.59   257.52
 6150.25   257.49
 6152.15   257.47
 6155.77   257.44
 6161.73   257.37
 6167.18   257.29
 6172.67   257.29
 6177.46   257.24
 6180.75   257.24
 6185.03   257.22
 6188.16   257.19
 6192.40   257.14
 6196.43   257.12
 6203.00   257.02
 6208.55   256.99
 6213.73   256.97
 6217.47   256.89
 6220.66   256.87
 6224.98   256.79
 6228.33   256.77
 6234.24   256.72
 6238.77   256.72
 6242.35   256.64
 6246.98   256.64
 6252.30   256.59
 6255.78   256.59
 6259.90   256.54
 6264.64   256.47
 6270.03   256.44
 6274.39   256.39
 6280.99   256.29
 6293.84   256.19
 6305.98   256.11
 6312.17   256.01
 6318.21   255.94
 6325.44   255.91
 6330.10   255.89
 6334.72   255.83
 6338.95   255.75
 6342.04   255.68
 6347.39   255.64
 6351.69   255.66
 6355.08   255.68
 6358.25   255.64
 6364.04   255.57
 6368.65   255.53
 6373.69   255.46
 6379.05   255.46
 6383.36   255.42
 6387.83   255.37
 6390.75   255.37
 6395.57   255.33
 6400.76   255.29
 6405.01   255.26
 6409.57   255.22
 6412.84   255.17
 6415.96   255.15
 6420.63   255.09
 6424.82   255.06
 6429.38   255.04
 6432.96   255.02
 6435.42   255.02
 6441.08   255.02
 6446.32   254.95
 6450.26   254.93
 6454.04   254.93
 6457.83   254.89
 6462.03   254.87
 6465.70   254.84
 6470.88   254.82
 6474.22   254.80
 6478.74   254.78
 6484.25   254.76
 6488.07   254.71
 6491.85   254.69
 6495.88   254.65
 6500.23   254.60
 6502.84   254.58
 6506.85   254.54
 6511.63   254.51
 6514.65   254.51
 6519.42   254.45
 6523.02   254.47
 6526.54   254.45
 6529.71   254.43
 6535.18   254.36
 6539.26   254.36
 6543.49   254.32
 6547.84   254.32
 6550.61   254.32
 6556.11   254.23
 6560.64   254.18
 6565.16   254.23
 6568.38   254.18
 6572.04   254.18
 6577.04   254.14
